# wavelength grid optimized for pah features
# created by create_wave_grid.pro
#
# micron
    0.0912000
     0.100904
     0.111640
     0.123519
     0.136662
     0.151203
     0.167291
     0.185092
     0.204786
     0.226575
     0.250684
     0.277357
     0.306868
     0.339520
     0.375646
     0.415615
     0.459837
     0.508765
     0.562899
     0.622793
     0.689060
     0.762377
     0.843496
     0.933246
      1.03255
      1.14241
      1.26397
      1.39845
      1.54725
      1.71189
      1.89403
      2.09556
      2.31854
      2.56523
      2.83818
      2.89558
      2.95414
      3.01389
      3.07484
      3.13703
      3.20047
      3.26520
      3.33124
      3.39861
      3.46734
      3.53747
      3.60901
      3.68200
      3.75647
      3.83244
      3.90995
      3.98902
      4.06970
      4.15200
      4.23598
      4.32165
      4.40905
      4.49822
      4.58919
      4.68200
      4.77669
      4.87330
      4.97186
      5.07241
      5.17500
      5.27966
      5.38644
      5.49537
      5.60651
      5.71990
      5.83558
      5.95360
      6.07401
      6.19685
      6.32218
      6.45004
      6.58049
      6.71357
      6.84935
      6.98787
      7.12920
      7.27338
      7.42048
      7.57056
      7.72366
      7.87987
      8.03924
      8.20182
      8.36770
      8.53693
      8.70958
      8.88573
      9.06544
      9.24878
      9.43583
      9.62666
      9.82135
      10.0200
      10.2226
      10.4294
      10.6403
      10.8555
      11.0750
      11.2990
      11.5275
      11.7607
      11.9985
      12.2412
      12.4888
      12.7413
      12.9990
      13.2619
      13.5301
      13.8038
      14.0829
      14.3678
      14.6583
      14.9548
      15.2572
      15.5658
      15.8806
      16.2018
      16.5295
      16.8638
      17.2048
      17.5528
      17.9078
      18.2699
      18.6394
      19.0164
      19.4010
      19.7934
      20.1937
      20.6021
      21.0187
      21.4438
      23.7255
      26.2499
      29.0430
      32.1333
      35.5523
      39.3351
      43.5205
      48.1512
      53.2746
      58.9431
      65.2148
      72.1538
      79.8312
      88.3254
      97.7234
      108.121
      119.626
      132.354
      146.437
      162.018
      179.258
      198.331
      219.434
      242.782
      268.615
      297.196
      328.818
      363.805
      402.515
      445.344
      492.729
      545.157
      603.163
      667.341
      738.347
      816.909
      903.830
      1000.00
